# of segments(n)      <R2>(A^2)/n     <R2>(A^2)/nl2      <R2>(A^2)    Count
# =========================================================================
       1            2.373                1.000            2.373          199600
       2            3.325                1.402            6.650          199200
       3            4.565                1.924           13.695          198800
       4            5.639                2.377           22.557          198400
       5            6.658                2.806           33.289          198000
       6            7.576                3.193           45.459          197600
       7            8.422                3.550           58.955          197200
       8            9.192                3.874           73.534          196800
       9            9.897                4.171           89.073          196400
      10           10.541                4.443          105.414          196000
      11           11.132                4.692          122.448          195600
      12           11.672                4.920          140.061          195200
      13           12.167                5.128          158.172          194800
      14           12.621                5.320          176.700          194400
      15           13.039                5.496          195.582          194000
      16           13.423                5.657          214.761          193600
      17           13.776                5.806          234.193          193200
      18           14.102                5.944          253.834          192800
      19           14.403                6.071          273.655          192400
      20           14.681                6.188          293.616          192000
      21           14.938                6.296          313.700          191600
      22           15.176                6.397          333.879          191200
      23           15.398                6.490          354.144          190800
      24           15.603                6.577          374.474          190400
      25           15.794                6.657          394.859          190000
      26           15.973                6.732          415.293          189600
      27           16.139                6.803          435.764          189200
      28           16.295                6.868          456.273          188800
      29           16.442                6.930          476.810          188400
      30           16.579                6.988          497.372          188000
      31           16.708                7.042          517.949          187600
      32           16.829                7.093          538.543          187200
      33           16.943                7.142          559.135          186800
      34           17.051                7.187          579.726          186400
      35           17.152                7.229          600.316          186000
      36           17.247                7.270          620.905          185600
      37           17.338                7.308          641.489          185200
      38           17.423                7.343          662.063          184800
      39           17.503                7.377          682.621          184400
      40           17.579                7.409          703.166          184000
      41           17.651                7.440          723.691          183600
      42           17.719                7.469          744.213          183200
      43           17.784                7.496          764.728          182800
      44           17.846                7.522          785.236          182400
      45           17.905                7.547          805.738          182000
      46           17.962                7.571          826.237          181600
      47           18.015                7.593          846.722          181200
      48           18.067                7.615          867.197          180800
      49           18.115                7.635          887.652          180400
      50           18.162                7.655          908.088          180000
      51           18.206                7.674          928.498          179600
      52           18.248                7.691          948.891          179200
      53           18.288                7.708          969.256          178800
      54           18.326                7.724          989.608          178400
      55           18.363                7.740         1009.943          178000
      56           18.397                7.754         1030.252          177600
      57           18.430                7.768         1050.537          177200
      58           18.462                7.782         1070.811          176800
      59           18.493                7.794         1091.060          176400
      60           18.522                7.807         1111.293          176000
      61           18.549                7.818         1131.506          175600
      62           18.576                7.830         1151.709          175200
      63           18.601                7.840         1171.894          174800
      64           18.626                7.851         1192.068          174400
      65           18.650                7.861         1212.219          174000
      66           18.672                7.870         1232.352          173600
      67           18.694                7.879         1252.469          173200
      68           18.714                7.888         1272.572          172800
      69           18.734                7.896         1292.676          172400
      70           18.754                7.905         1312.764          172000
      71           18.772                7.912         1332.846          171600
      72           18.791                7.920         1352.922          171200
      73           18.808                7.928         1373.005          170800
      74           18.826                7.935         1393.091          170400
      75           18.843                7.942         1413.192          170000
      76           18.859                7.949         1433.304          169600
      77           18.876                7.956         1453.425          169200
      78           18.892                7.963         1473.557          168800
      79           18.908                7.969         1493.702          168400
      80           18.923                7.976         1513.865          168000
      81           18.939                7.982         1534.034          167600
      82           18.954                7.989         1554.203          167200
      83           18.968                7.995         1574.379          166800
      84           18.983                8.001         1594.568          166400
      85           18.997                8.007         1614.761          166000
      86           19.011                8.013         1634.972          165600
      87           19.025                8.019         1655.190          165200
      88           19.039                8.025         1675.410          164800
      89           19.052                8.030         1695.611          164400
      90           19.064                8.035         1715.793          164000
      91           19.077                8.041         1735.968          163600
      92           19.088                8.046         1756.136          163200
      93           19.100                8.050         1776.285          162800
      94           19.111                8.055         1796.429          162400
      95           19.122                8.060         1816.551          162000
      96           19.132                8.064         1836.669          161600
      97           19.142                8.068         1856.759          161200
      98           19.151                8.072         1876.815          160800
      99           19.160                8.076         1896.839          160400
     100           19.168                8.079         1916.844          160000
     101           19.176                8.083         1936.807          159600
     102           19.184                8.086         1956.750          159200
     103           19.191                8.089         1976.656          158800
     104           19.198                8.092         1996.555          158400
     105           19.204                8.094         2016.435          158000
     106           19.210                8.097         2036.290          157600
     107           19.216                8.099         2056.126          157200
     108           19.222                8.102         2075.935          156800
     109           19.227                8.104         2095.717          156400
     110           19.231                8.106         2115.458          156000
     111           19.236                8.108         2135.175          155600
     112           19.240                8.109         2154.854          155200
     113           19.243                8.111         2174.507          154800
     114           19.247                8.112         2194.119          154400
     115           19.250                8.114         2213.703          154000
     116           19.252                8.115         2233.239          153600
     117           19.254                8.115         2252.747          153200
     118           19.256                8.116         2272.235          152800
     119           19.258                8.117         2291.694          152400
     120           19.259                8.118         2311.122          152000
     121           19.261                8.118         2330.523          151600
     122           19.261                8.118         2349.888          151200
     123           19.262                8.119         2369.219          150800
     124           19.262                8.119         2388.515          150400
     125           19.262                8.119         2407.777          150000
     126           19.262                8.119         2426.994          149600
     127           19.261                8.118         2446.193          149200
     128           19.261                8.118         2465.370          148800
     129           19.260                8.118         2484.508          148400
     130           19.259                8.117         2503.616          148000
     131           19.257                8.117         2522.710          147600
     132           19.256                8.116         2541.800          147200
     133           19.255                8.116         2560.872          146800
     134           19.253                8.115         2579.937          146400
     135           19.252                8.114         2598.982          146000
     136           19.250                8.114         2618.041          145600
     137           19.249                8.113         2637.087          145200
     138           19.247                8.113         2656.136          144800
     139           19.246                8.112         2675.195          144400
     140           19.245                8.112         2694.281          144000
     141           19.244                8.111         2713.383          143600
     142           19.243                8.111         2732.479          143200
     143           19.242                8.110         2751.593          142800
     144           19.241                8.110         2770.705          142400
     145           19.240                8.110         2789.839          142000
     146           19.240                8.109         2808.978          141600
     147           19.239                8.109         2828.164          141200
     148           19.239                8.109         2847.377          140800
     149           19.239                8.109         2866.618          140400
     150           19.239                8.109         2885.877          140000
     151           19.240                8.109         2905.171          139600
     152           19.240                8.109         2924.491          139200
     153           19.241                8.110         2943.811          138800
     154           19.241                8.110         2963.124          138400
     155           19.241                8.110         2982.426          138000
     156           19.242                8.110         3001.742          137600
     157           19.242                8.110         3021.060          137200
     158           19.243                8.111         3040.369          136800
     159           19.243                8.111         3059.695          136400
     160           19.244                8.111         3079.026          136000
     161           19.245                8.111         3098.389          135600
     162           19.245                8.112         3117.731          135200
     163           19.246                8.112         3137.114          134800
     164           19.247                8.112         3156.508          134400
     165           19.248                8.113         3175.921          134000
     166           19.249                8.113         3195.365          133600
     167           19.250                8.114         3214.828          133200
     168           19.252                8.114         3234.277          132800
     169           19.253                8.115         3253.736          132400
     170           19.254                8.115         3273.232          132000
     171           19.256                8.116         3292.757          131600
     172           19.257                8.117         3312.285          131200
     173           19.259                8.118         3331.840          130800
     174           19.261                8.118         3351.414          130400
     175           19.263                8.119         3371.012          130000
     176           19.265                8.120         3390.622          129600
     177           19.267                8.121         3410.260          129200
     178           19.269                8.122         3429.928          128800
     179           19.272                8.123         3449.599          128400
     180           19.274                8.124         3469.328          128000
     181           19.277                8.125         3489.072          127600
     182           19.279                8.126         3508.840          127200
     183           19.282                8.127         3528.636          126800
     184           19.285                8.128         3548.424          126400
     185           19.288                8.130         3568.256          126000
     186           19.291                8.131         3588.109          125600
     187           19.294                8.132         3607.982          125200
     188           19.297                8.134         3627.896          124800
     189           19.301                8.135         3647.816          124400
     190           19.304                8.136         3667.783          124000
     191           19.308                8.138         3687.750          123600
     192           19.311                8.139         3707.730          123200
     193           19.315                8.141         3727.707          122800
     194           19.318                8.142         3747.652          122400
     195           19.321                8.144         3767.576          122000
     196           19.324                8.145         3787.443          121600
     197           19.326                8.146         3807.306          121200
     198           19.329                8.147         3827.105          120800
     199           19.331                8.148         3846.891          120400
     200           19.333                8.149         3866.678          120000
     201           19.336                8.150         3886.448          119600
     202           19.338                8.151         3906.208          119200
     203           19.340                8.152         3925.973          118800
     204           19.342                8.152         3945.732          118400
     205           19.344                8.153         3965.456          118000
     206           19.345                8.154         3985.164          117600
     207           19.347                8.155         4004.860          117200
     208           19.349                8.155         4024.560          116800
     209           19.350                8.156         4044.210          116400
     210           19.352                8.157         4063.841          116000
     211           19.353                8.157         4083.436          115600
     212           19.354                8.157         4103.000          115200
     213           19.355                8.158         4122.511          114800
     214           19.355                8.158         4141.991          114400
     215           19.355                8.158         4161.432          114000
     216           19.356                8.158         4180.812          113600
     217           19.356                8.158         4200.152          113200
     218           19.355                8.158         4219.436          112800
     219           19.355                8.158         4238.710          112400
     220           19.354                8.158         4257.966          112000
     221           19.354                8.157         4277.180          111600
     222           19.353                8.157         4296.381          111200
     223           19.352                8.157         4315.539          110800
     224           19.351                8.156         4334.714          110400
     225           19.350                8.156         4353.836          110000
     226           19.350                8.156         4372.992          109600
     227           19.349                8.155         4392.134          109200
     228           19.348                8.155         4411.311          108800
     229           19.347                8.155         4430.468          108400
     230           19.346                8.154         4449.642          108000
     231           19.345                8.154         4468.805          107600
     232           19.345                8.154         4487.948          107200
     233           19.344                8.153         4507.097          106800
     234           19.343                8.153         4526.249          106400
     235           19.342                8.153         4545.414          106000
     236           19.341                8.152         4564.573          105600
     237           19.341                8.152         4583.717          105200
     238           19.340                8.151         4602.827          104800
     239           19.339                8.151         4621.911          104400
     240           19.337                8.151         4640.968          104000
     241           19.336                8.150         4660.012          103600
     242           19.335                8.150         4679.091          103200
     243           19.334                8.149         4698.204          102800
     244           19.333                8.149         4717.307          102400
     245           19.332                8.148         4736.405          102000
     246           19.331                8.148         4755.521          101600
     247           19.331                8.148         4774.644          101200
     248           19.330                8.147         4793.813          100800
