# of segments(n)      <R2>(A^2)/n     <R2>(A^2)/nl2      <R2>(A^2)    Count
# =========================================================================
       1            2.373                1.001            2.373         7534900
       2            3.325                1.402            6.650         7519800
       3            4.567                1.926           13.701         7504700
       4            5.643                2.380           22.573         7489600
       5            6.666                2.811           33.331         7474500
       6            7.590                3.200           45.539         7459400
       7            8.443                3.560           59.102         7444300
       8            9.222                3.889           73.777         7429200
       9            9.938                4.191           89.446         7414100
      10           10.595                4.468          105.954         7399000
      11           11.200                4.722          123.197         7383900
      12           11.755                4.957          141.066         7368800
      13           12.268                5.173          159.479         7353700
      14           12.740                5.372          178.357         7338600
      15           13.176                5.556          197.639         7323500
      16           13.579                5.726          217.266         7308400
      17           13.952                5.883          237.191         7293300
      18           14.298                6.029          257.372         7278200
      19           14.620                6.164          277.773         7263100
      20           14.918                6.290          298.363         7248000
      21           15.196                6.408          319.117         7232900
      22           15.455                6.517          340.010         7217800
      23           15.697                6.619          361.025         7202700
      24           15.923                6.714          382.142         7187600
      25           16.134                6.803          403.348         7172500
      26           16.332                6.886          424.630         7157400
      27           16.518                6.965          445.978         7142300
      28           16.692                7.038          467.380         7127200
      29           16.856                7.107          488.828         7112100
      30           17.010                7.173          510.314         7097000
      31           17.156                7.234          531.833         7081900
      32           17.293                7.292          553.378         7066800
      33           17.423                7.346          574.944         7051700
      34           17.545                7.398          596.527         7036600
      35           17.661                7.447          618.123         7021500
      36           17.770                7.493          639.730         7006400
      37           17.874                7.537          661.347         6991300
      38           17.973                7.578          682.969         6976200
      39           18.067                7.618          704.596         6961100
      40           18.156                7.655          726.227         6946000
      41           18.241                7.691          747.861         6930900
      42           18.321                7.725          769.496         6915800
      43           18.398                7.758          791.132         6900700
      44           18.472                7.789          812.768         6885600
      45           18.542                7.818          834.405         6870500
      46           18.610                7.847          856.043         6855400
      47           18.674                7.874          877.678         6840300
      48           18.736                7.900          899.312         6825200
      49           18.795                7.925          920.945         6810100
      50           18.852                7.949          942.577         6795000
      51           18.906                7.972          964.206         6779900
      52           18.958                7.994          985.832         6764800
      53           19.009                8.015         1007.454         6749700
      54           19.057                8.035         1029.072         6734600
      55           19.103                8.055         1050.685         6719500
      56           19.148                8.074         1072.294         6704400
      57           19.191                8.092         1093.897         6689300
      58           19.233                8.110         1115.497         6674200
      59           19.273                8.126         1137.092         6659100
      60           19.311                8.143         1158.681         6644000
      61           19.349                8.158         1180.266         6628900
      62           19.385                8.174         1201.846         6613800
      63           19.419                8.188         1223.419         6598700
      64           19.453                8.202         1244.987         6583600
      65           19.485                8.216         1266.551         6568500
      66           19.517                8.229         1288.110         6553400
      67           19.547                8.242         1309.663         6538300
      68           19.577                8.255         1331.214         6523200
      69           19.605                8.267         1352.759         6508100
      70           19.633                8.278         1374.300         6493000
      71           19.660                8.290         1395.837         6477900
      72           19.686                8.301         1417.371         6462800
      73           19.711                8.311         1438.902         6447700
      74           19.736                8.322         1460.433         6432600
      75           19.760                8.332         1481.963         6417500
      76           19.783                8.342         1503.493         6402400
      77           19.805                8.351         1525.022         6387300
      78           19.828                8.360         1546.552         6372200
      79           19.849                8.369         1568.079         6357100
      80           19.870                8.378         1589.603         6342000
      81           19.890                8.387         1611.125         6326900
      82           19.910                8.395         1632.644         6311800
      83           19.930                8.403         1654.159         6296700
      84           19.948                8.411         1675.668         6281600
      85           19.967                8.419         1697.175         6266500
      86           19.985                8.427         1718.674         6251400
      87           20.002                8.434         1740.170         6236300
      88           20.019                8.441         1761.662         6221200
      89           20.035                8.448         1783.148         6206100
      90           20.051                8.455         1804.628         6191000
      91           20.067                8.461         1826.100         6175900
      92           20.082                8.468         1847.565         6160800
      93           20.097                8.474         1869.021         6145700
      94           20.111                8.480         1890.472         6130600
      95           20.125                8.486         1911.914         6115500
      96           20.139                8.492         1933.348         6100400
      97           20.152                8.497         1954.775         6085300
      98           20.165                8.503         1976.193         6070200
      99           20.178                8.508         1997.602         6055100
     100           20.190                8.513         2019.002         6040000
     101           20.202                8.518         2040.393         6024900
     102           20.213                8.523         2061.775         6009800
     103           20.225                8.528         2083.147         5994700
     104           20.236                8.532         2104.510         5979600
     105           20.246                8.537         2125.864         5964500
     106           20.257                8.541         2147.213         5949400
     107           20.267                8.546         2168.556         5934300
     108           20.277                8.550         2189.895         5919200
     109           20.287                8.554         2211.231         5904100
     110           20.296                8.558         2232.564         5889000
     111           20.305                8.562         2253.893         5873900
     112           20.314                8.566         2275.217         5858800
     113           20.323                8.569         2296.535         5843700
     114           20.332                8.573         2317.846         5828600
     115           20.340                8.577         2339.154         5813500
     116           20.349                8.580         2360.458         5798400
     117           20.357                8.584         2381.755         5783300
     118           20.365                8.587         2403.046         5768200
     119           20.373                8.590         2424.333         5753100
     120           20.380                8.593         2445.613         5738000
     121           20.387                8.597         2466.886         5722900
     122           20.395                8.600         2488.154         5707800
     123           20.402                8.603         2509.421         5692700
     124           20.409                8.605         2530.683         5677600
     125           20.416                8.608         2551.943         5662500
     126           20.422                8.611         2573.201         5647400
     127           20.429                8.614         2594.457         5632300
     128           20.435                8.617         2615.709         5617200
     129           20.442                8.619         2636.959         5602100
     130           20.448                8.622         2658.203         5587000
     131           20.454                8.624         2679.446         5571900
     132           20.460                8.627         2700.686         5556800
     133           20.466                8.629         2721.926         5541700
     134           20.471                8.632         2743.168         5526600
     135           20.477                8.634         2764.409         5511500
     136           20.483                8.637         2785.652         5496400
     137           20.488                8.639         2806.893         5481300
     138           20.494                8.641         2828.134         5466200
     139           20.499                8.644         2849.374         5451100
     140           20.504                8.646         2870.614         5436000
     141           20.510                8.648         2891.851         5420900
     142           20.515                8.650         2913.089         5405800
     143           20.520                8.652         2934.327         5390700
     144           20.525                8.654         2955.566         5375600
     145           20.530                8.656         2976.803         5360500
     146           20.535                8.659         2998.038         5345400
     147           20.539                8.661         3019.270         5330300
     148           20.544                8.662         3040.504         5315200
     149           20.549                8.664         3061.735         5300100
     150           20.553                8.666         3082.966         5285000
     151           20.558                8.668         3104.193         5269900
     152           20.562                8.670         3125.418         5254800
     153           20.566                8.672         3146.635         5239700
     154           20.570                8.674         3167.851         5224600
     155           20.575                8.675         3189.063         5209500
     156           20.579                8.677         3210.272         5194400
     157           20.583                8.679         3231.480         5179300
     158           20.587                8.680         3252.681         5164200
     159           20.590                8.682         3273.882         5149100
     160           20.594                8.684         3295.077         5134000
     161           20.598                8.685         3316.275         5118900
     162           20.602                8.687         3337.474         5103800
     163           20.605                8.688         3358.668         5088700
     164           20.609                8.690         3379.863         5073600
     165           20.612                8.691         3401.052         5058500
     166           20.616                8.693         3422.243         5043400
     167           20.619                8.694         3443.427         5028300
     168           20.623                8.696         3464.603         5013200
     169           20.626                8.697         3485.775         4998100
     170           20.629                8.698         3506.940         4983000
     171           20.632                8.700         3528.100         4967900
     172           20.635                8.701         3549.258         4952800
     173           20.638                8.702         3570.413         4937700
     174           20.641                8.703         3591.568         4922600
     175           20.644                8.705         3612.723         4907500
     176           20.647                8.706         3633.874         4892400
     177           20.650                8.707         3655.016         4877300
     178           20.653                8.708         3676.156         4862200
     179           20.655                8.709         3697.288         4847100
     180           20.658                8.711         3718.414         4832000
     181           20.660                8.712         3739.536         4816900
     182           20.663                8.713         3760.653         4801800
     183           20.665                8.714         3781.772         4786700
     184           20.668                8.715         3802.890         4771600
     185           20.670                8.716         3824.009         4756500
     186           20.673                8.717         3845.137         4741400
     187           20.675                8.718         3866.268         4726300
     188           20.678                8.719         3887.407         4711200
     189           20.680                8.720         3908.552         4696100
     190           20.683                8.721         3929.699         4681000
     191           20.685                8.722         3950.860         4665900
     192           20.688                8.723         3972.024         4650800
     193           20.690                8.724         3993.197         4635700
     194           20.693                8.725         4014.370         4620600
     195           20.695                8.726         4035.550         4605500
     196           20.698                8.727         4056.735         4590400
     197           20.700                8.728         4077.927         4575300
     198           20.703                8.729         4099.130         4560200
     199           20.705                8.730         4120.341         4545100
     200           20.708                8.732         4141.560         4530000
     201           20.710                8.733         4162.786         4514900
     202           20.713                8.734         4184.016         4499800
     203           20.716                8.735         4205.255         4484700
     204           20.718                8.736         4226.501         4469600
     205           20.721                8.737         4247.752         4454500
     206           20.723                8.738         4269.012         4439400
     207           20.726                8.739         4290.280         4424300
     208           20.729                8.740         4311.560         4409200
     209           20.731                8.741         4332.843         4394100
     210           20.734                8.743         4354.131         4379000
     211           20.737                8.744         4375.421         4363900
     212           20.739                8.745         4396.716         4348800
     213           20.742                8.746         4418.015         4333700
     214           20.744                8.747         4439.320         4318600
     215           20.747                8.748         4460.634         4303500
     216           20.750                8.749         4481.954         4288400
     217           20.752                8.750         4503.281         4273300
     218           20.755                8.752         4524.610         4258200
     219           20.758                8.753         4545.944         4243100
     220           20.760                8.754         4567.281         4228000
     221           20.763                8.755         4588.621         4212900
     222           20.766                8.756         4609.962         4197800
     223           20.768                8.757         4631.307         4182700
     224           20.771                8.758         4652.659         4167600
     225           20.773                8.759         4674.022         4152500
     226           20.776                8.760         4695.396         4137400
     227           20.779                8.762         4716.782         4122300
     228           20.781                8.763         4738.180         4107200
     229           20.784                8.764         4759.592         4092100
     230           20.787                8.765         4781.018         4077000
     231           20.790                8.766         4802.447         4061900
     232           20.793                8.767         4823.880         4046800
     233           20.795                8.768         4845.320         4031700
     234           20.798                8.770         4866.763         4016600
     235           20.801                8.771         4888.206         4001500
     236           20.804                8.772         4909.652         3986400
     237           20.806                8.773         4931.097         3971300
     238           20.809                8.774         4952.547         3956200
     239           20.812                8.775         4974.000         3941100
     240           20.814                8.777         4995.457         3926000
     241           20.817                8.778         5016.916         3910900
     242           20.820                8.779         5038.391         3895800
     243           20.823                8.780         5059.877         3880700
     244           20.825                8.781         5081.376         3865600
     245           20.828                8.782         5102.886         3850500
     246           20.831                8.783         5124.406         3835400
     247           20.834                8.785         5145.934         3820300
     248           20.837                8.786         5167.471         3805200
