# of segments(n)      <R2>(A^2)/n     <R2>(A^2)/nl2      <R2>(A^2)    Count
# =========================================================================
       1            2.376                0.996            2.376          499499
       2            3.335                1.398            6.671          498498
       3            4.577                1.918           13.730          497497
       4            5.653                2.370           22.613          496496
       5            6.670                2.796           33.348          495495
       6            7.587                3.180           45.521          494494
       7            8.430                3.534           59.012          493493
       8            9.199                3.856           73.594          492492
       9            9.904                4.152           89.140          491491
      10           10.550                4.422          105.502          490490
      11           11.143                4.671          122.577          489489
      12           11.688                4.900          140.260          488488
      13           12.190                5.110          158.466          487487
      14           12.652                5.303          177.125          486486
      15           13.078                5.482          196.169          485485
      16           13.472                5.647          215.551          484484
      17           13.837                5.800          235.224          483483
      18           14.175                5.942          255.148          482482
      19           14.489                6.074          275.291          481481
      20           14.781                6.196          295.620          480480
      21           15.053                6.310          316.109          479479
      22           15.306                6.416          336.730          478478
      23           15.542                6.515          357.465          477477
      24           15.762                6.607          378.300          476476
      25           15.969                6.694          399.216          475475
      26           16.162                6.775          420.202          474474
      27           16.343                6.851          441.250          473473
      28           16.513                6.922          462.354          472472
      29           16.673                6.989          483.507          471471
      30           16.824                7.052          504.710          470470
      31           16.966                7.112          525.952          469469
      32           17.101                7.168          547.231          468468
      33           17.228                7.222          568.529          467467
      34           17.348                7.272          589.844          466466
      35           17.462                7.320          611.160          465465
      36           17.569                7.365          632.496          464464
      37           17.671                7.407          653.834          463463
      38           17.768                7.448          675.176          462462
      39           17.859                7.486          696.513          461461
      40           17.946                7.523          717.844          460460
      41           18.028                7.557          739.168          459459
      42           18.107                7.590          760.488          458458
      43           18.181                7.621          781.804          457457
      44           18.252                7.651          803.109          456456
      45           18.320                7.680          824.410          455455
      46           18.385                7.707          845.703          454454
      47           18.447                7.732          866.988          453453
      48           18.506                7.757          888.269          452452
      49           18.562                7.781          909.543          451451
      50           18.616                7.804          930.804          450450
      51           18.668                7.825          952.059          449449
      52           18.718                7.846          973.311          448448
      53           18.765                7.866          994.556          447447
      54           18.811                7.885         1015.804          446446
      55           18.856                7.904         1037.060          445445
      56           18.899                7.922         1058.320          444444
      57           18.940                7.939         1079.584          443443
      58           18.980                7.956         1100.849          442442
      59           19.019                7.972         1122.116          441441
      60           19.056                7.988         1143.381          440440
      61           19.092                8.003         1164.636          439439
      62           19.127                8.018         1185.881          438438
      63           19.160                8.032         1207.106          437437
      64           19.192                8.045         1228.313          436436
      65           19.223                8.058         1249.505          435435
      66           19.253                8.070         1270.687          434434
      67           19.281                8.082         1291.850          433433
      68           19.309                8.094         1312.994          432432
      69           19.335                8.105         1334.116          431431
      70           19.360                8.115         1355.216          430430
      71           19.384                8.126         1376.290          429429
      72           19.408                8.135         1397.348          428428
      73           19.430                8.145         1418.381          427427
      74           19.451                8.154         1439.401          426426
      75           19.472                8.162         1460.407          425425
      76           19.492                8.171         1481.402          424424
      77           19.512                8.179         1502.394          423423
      78           19.531                8.187         1523.381          422422
      79           19.549                8.195         1544.365          421421
      80           19.567                8.202         1565.350          420420
      81           19.584                8.209         1586.334          419419
      82           19.601                8.217         1607.322          418418
      83           19.618                8.224         1628.318          417417
      84           19.635                8.231         1649.316          416416
      85           19.651                8.237         1670.319          415415
      86           19.667                8.244         1691.329          414414
      87           19.682                8.250         1712.359          413413
      88           19.698                8.257         1733.406          412412
      89           19.713                8.263         1754.476          411411
      90           19.728                8.270         1775.557          410410
      91           19.743                8.276         1796.658          409409
      92           19.759                8.282         1817.789          408408
      93           19.774                8.289         1838.940          407407
      94           19.788                8.295         1860.109          406406
      95           19.803                8.301         1881.304          405405
      96           19.818                8.307         1902.524          404404
      97           19.833                8.314         1923.765          403403
      98           19.847                8.320         1945.021          402402
      99           19.862                8.326         1966.289          401401
     100           19.876                8.332         1987.576          400400
     101           19.890                8.338         2008.895          399399
     102           19.904                8.344         2030.230          398398
     103           19.918                8.349         2051.584          397397
     104           19.932                8.355         2072.957          396396
     105           19.946                8.361         2094.347          395395
     106           19.960                8.367         2115.759          394394
     107           19.974                8.373         2137.179          393393
     108           19.987                8.378         2158.624          392392
     109           20.001                8.384         2180.082          391391
     110           20.014                8.390         2201.560          390390
     111           20.028                8.395         2223.054          389389
     112           20.041                8.401         2244.565          388388
     113           20.054                8.406         2266.099          387387
     114           20.067                8.412         2287.659          386386
     115           20.080                8.417         2309.230          385385
     116           20.093                8.423         2330.817          384384
     117           20.106                8.428         2352.414          383383
     118           20.119                8.434         2374.025          382382
     119           20.131                8.439         2395.641          381381
     120           20.144                8.444         2417.261          380380
     121           20.156                8.449         2438.889          379379
     122           20.168                8.454         2460.528          378378
     123           20.180                8.459         2482.170          377377
     124           20.192                8.464         2503.826          376376
     125           20.204                8.469         2525.480          375375
     126           20.215                8.474         2547.133          374374
     127           20.227                8.479         2568.786          373373
     128           20.238                8.483         2590.441          372372
     129           20.249                8.488         2612.102          371371
     130           20.260                8.493         2633.755          370370
     131           20.270                8.497         2655.412          369369
     132           20.281                8.501         2677.078          368368
     133           20.291                8.506         2698.734          367367
     134           20.301                8.510         2720.391          366366
     135           20.311                8.514         2742.048          365365
     136           20.321                8.518         2763.704          364364
     137           20.331                8.522         2785.359          363363
     138           20.341                8.526         2807.009          362362
     139           20.350                8.530         2828.663          361361
     140           20.359                8.534         2850.304          360360
     141           20.368                8.538         2871.941          359359
     142           20.377                8.542         2893.586          358358
     143           20.386                8.546         2915.222          357357
     144           20.395                8.549         2936.859          356356
     145           20.403                8.553         2958.486          355355
     146           20.412                8.556         2980.123          354354
     147           20.420                8.560         3001.773          353353
     148           20.429                8.563         3023.425          352352
     149           20.437                8.567         3045.078          351351
     150           20.445                8.570         3066.730          350350
     151           20.453                8.574         3088.380          349349
     152           20.461                8.577         3110.036          348348
     153           20.469                8.580         3131.700          347347
     154           20.476                8.583         3153.361          346346
     155           20.484                8.587         3175.034          345345
     156           20.492                8.590         3196.714          344344
     157           20.499                8.593         3218.393          343343
     158           20.507                8.596         3240.055          342342
     159           20.514                8.599         3261.717          341341
     160           20.521                8.602         3283.371          340340
     161           20.528                8.605         3305.021          339339
     162           20.535                8.608         3326.649          338338
     163           20.542                8.611         3348.271          337337
     164           20.548                8.613         3369.872          336336
     165           20.554                8.616         3391.464          335335
     166           20.561                8.619         3413.047          334334
     167           20.567                8.621         3434.617          333333
     168           20.573                8.624         3456.196          332332
     169           20.579                8.626         3477.777          331331
     170           20.585                8.629         3499.369          330330
     171           20.590                8.631         3520.945          329329
     172           20.596                8.634         3542.532          328328
     173           20.602                8.636         3564.118          327327
     174           20.608                8.638         3585.711          326326
     175           20.613                8.641         3607.304          325325
     176           20.619                8.643         3628.892          324324
     177           20.624                8.645         3650.497          323323
     178           20.630                8.648         3672.105          322322
     179           20.635                8.650         3693.714          321321
     180           20.641                8.652         3715.335          320320
     181           20.646                8.655         3736.958          319319
     182           20.652                8.657         3758.606          318318
     183           20.657                8.659         3780.268          317317
     184           20.663                8.661         3801.927          316316
     185           20.668                8.664         3823.594          315315
     186           20.673                8.666         3845.261          314314
     187           20.679                8.668         3866.913          313313
     188           20.684                8.670         3888.589          312312
     189           20.689                8.673         3910.248          311311
     190           20.694                8.675         3931.927          310310
     191           20.699                8.677         3953.600          309309
     192           20.705                8.679         3975.301          308308
     193           20.710                8.681         3997.000          307307
     194           20.715                8.683         4018.703          306306
     195           20.720                8.686         4040.410          305305
     196           20.725                8.688         4062.111          304304
     197           20.730                8.690         4083.841          303303
     198           20.735                8.692         4105.578          302302
     199           20.740                8.694         4127.333          301301
     200           20.746                8.696         4149.111          300300
     201           20.751                8.698         4170.887          299299
     202           20.756                8.701         4192.707          298298
     203           20.761                8.703         4214.529          297297
     204           20.767                8.705         4236.395          296296
     205           20.772                8.707         4258.268          295295
     206           20.778                8.710         4280.173          294294
     207           20.783                8.712         4302.085          293293
     208           20.789                8.714         4324.020          292292
     209           20.794                8.717         4345.980          291291
     210           20.800                8.719         4367.970          290290
     211           20.806                8.721         4389.994          289289
     212           20.811                8.724         4412.028          288288
     213           20.817                8.726         4434.085          287287
     214           20.823                8.729         4456.140          286286
     215           20.829                8.731         4478.230          285285
     216           20.835                8.734         4500.337          284284
     217           20.841                8.736         4522.486          283283
     218           20.847                8.739         4544.662          282282
     219           20.853                8.741         4566.873          281281
     220           20.860                8.744         4589.121          280280
     221           20.866                8.747         4611.385          279279
     222           20.872                8.749         4633.680          278278
     223           20.879                8.752         4655.992          277277
     224           20.885                8.755         4678.320          276276
     225           20.892                8.758         4700.694          275275
     226           20.899                8.760         4723.080          274274
     227           20.905                8.763         4745.468          273273
     228           20.912                8.766         4767.848          272272
     229           20.918                8.768         4790.218          271271
     230           20.924                8.771         4812.588          270270
     231           20.930                8.774         4834.942          269269
     232           20.937                8.776         4857.296          268268
     233           20.943                8.779         4879.648          267267
     234           20.949                8.781         4901.995          266266
     235           20.955                8.784         4924.332          265265
     236           20.960                8.786         4946.675          264264
     237           20.966                8.789         4969.023          263263
     238           20.972                8.791         4991.396          262262
     239           20.978                8.794         5013.736          261261
     240           20.984                8.796         5036.088          260260
     241           20.989                8.798         5058.438          259259
     242           20.995                8.801         5080.790          258258
     243           21.001                8.803         5103.156          257257
     244           21.006                8.805         5125.531          256256
     245           21.012                8.808         5147.891          255255
     246           21.017                8.810         5170.225          254254
     247           21.023                8.812         5192.564          253253
     248           21.028                8.814         5214.871          252252
